Date (YYYY-MM-DD):2024-01-11   Time: 10:28:39
Patient name: test_1
Patient gender: Female
Patient age: 30
   
Results:
AI: 50,212446
T 1/2: 3,596969
AMP: 0,061975
M: 9,335820

I0: 3,499337
Is: 0,020458
Ts: 55,642346
If: 0,041517
Tf: 3,034301

Temperature (degree):36,90
Motor time set /s:9
Moter RRM:1000
Raw data:
  Time (s)	   Intensity(au)       Fitted Intensity (au)
      0,00000	      3,45680	      3,44008
      0,10000	      3,44292	      3,44138
      0,20000	      3,44032	      3,44264
      0,30000	      3,44063	      3,44385
      0,40000	      3,44177	      3,44503
      0,50000	      3,44307	      3,44617
      0,60000	      3,44444	      3,44728
      0,70000	      3,44582	      3,44835
      0,80000	      3,44719	      3,44938
      0,90000	      3,44856	      3,45039
      1,00000	      3,44978	      3,45136
      1,10000	      3,45100	      3,45230
      1,20000	      3,45215	      3,45321
      1,30000	      3,45322	      3,45410
      1,40000	      3,45428	      3,45496
      1,50000	      3,45528	      3,45579
      1,60000	      3,45619	      3,45659
      1,70000	      3,45711	      3,45737
      1,80000	      3,45802	      3,45812
      1,90000	      3,45886	      3,45886
      2,00000	      3,45963	      3,45957
      2,10000	      3,46039	      3,46025
      2,20000	      3,46107	      3,46092
      2,30000	      3,46184	      3,46156
      2,40000	      3,46252	      3,46219
      2,50000	      3,46306	      3,46280
      2,60000	      3,46359	      3,46338
      2,70000	      3,46420	      3,46395
      2,80000	      3,46474	      3,46451
      2,90000	      3,46527	      3,46504
      3,00000	      3,46596	      3,46556
      3,10000	      3,46634	      3,46606
      3,20000	      3,46687	      3,46655
      3,30000	      3,46725	      3,46703
      3,40000	      3,46764	      3,46749
      3,50000	      3,46809	      3,46793
      3,60000	      3,46840	      3,46836
      3,70000	      3,46878	      3,46878
      3,80000	      3,46909	      3,46919
      3,90000	      3,46939	      3,46958
      4,00000	      3,46977	      3,46997
      4,10000	      3,47008	      3,47034
      4,20000	      3,47038	      3,47070
      4,30000	      3,47069	      3,47105
      4,40000	      3,47099	      3,47139
      4,50000	      3,47130	      3,47171
      4,60000	      3,47160	      3,47203
      4,70000	      3,47191	      3,47235
      4,80000	      3,47214	      3,47265
      4,90000	      3,47237	      3,47294
      5,00000	      3,47260	      3,47322
      5,10000	      3,47282	      3,47350
      5,20000	      3,47305	      3,47377
      5,30000	      3,47328	      3,47403
      5,40000	      3,47351	      3,47428
      5,50000	      3,47374	      3,47453
      5,60000	      3,47397	      3,47477
      5,70000	      3,47404	      3,47500
      5,80000	      3,47427	      3,47522
      5,90000	      3,47450	      3,47544
      6,00000	      3,47466	      3,47566
      6,10000	      3,47481	      3,47586
      6,20000	      3,47496	      3,47606
      6,30000	      3,47511	      3,47626
      6,40000	      3,47527	      3,47645
      6,50000	      3,47542	      3,47664
      6,60000	      3,47557	      3,47682
      6,70000	      3,47580	      3,47699
      6,80000	      3,47588	      3,47716
      6,90000	      3,47603	      3,47733
      7,00000	      3,47618	      3,47749
      7,10000	      3,47626	      3,47765
      7,20000	      3,47641	      3,47780
      7,30000	      3,47656	      3,47795
      7,40000	      3,47672	      3,47810
      7,50000	      3,47687	      3,47824
      7,60000	      3,47694	      3,47838
      7,70000	      3,47710	      3,47851
      7,80000	      3,47717	      3,47865
      7,90000	      3,47725	      3,47877
      8,00000	      3,47740	      3,47890
      8,10000	      3,47748	      3,47902
      8,20000	      3,47755	      3,47914
      8,30000	      3,47771	      3,47926
      8,40000	      3,47778	      3,47937
      8,50000	      3,47794	      3,47948
      8,60000	      3,47801	      3,47959
      8,70000	      3,47809	      3,47969
      8,80000	      3,47824	      3,47980
      8,90000	      3,47839	      3,47990
      9,00000	      3,47847	      3,47999
      9,10000	      3,47855	      3,48009
      9,20000	      3,47862	      3,48018
      9,30000	      3,47878	      3,48028
      9,40000	      3,47885	      3,48037
      9,50000	      3,47893	      3,48045
      9,60000	      3,47908	      3,48054
      9,70000	      3,47916	      3,48062
      9,80000	      3,47923	      3,48071
      9,90000	      3,47931	      3,48079
     10,00000	      3,47939	      3,48087
     10,10000	      3,47954	      3,48094
     10,20000	      3,47961	      3,48102
     10,30000	      3,47969	      3,48109
     10,40000	      3,47977	      3,48117
     10,50000	      3,47992	      3,48124
     10,60000	      3,48000	      3,48131
     10,70000	      3,48007	      3,48138
     10,80000	      3,48038	      3,48144
     10,90000	      3,48045	      3,48151
     11,00000	      3,48053	      3,48157
     11,10000	      3,48061	      3,48164
     11,20000	      3,48068	      3,48170
     11,30000	      3,48076	      3,48176
     11,40000	      3,48083	      3,48182
     11,50000	      3,48091	      3,48188
     11,60000	      3,48099	      3,48194
     11,70000	      3,48099	      3,48200
     11,80000	      3,48106	      3,48205
     11,90000	      3,48122	      3,48211
     12,00000	      3,48129	      3,48216
     12,10000	      3,48137	      3,48222
     12,20000	      3,48145	      3,48227
     12,30000	      3,48152	      3,48232
     12,40000	      3,48167	      3,48237
     12,50000	      3,48183	      3,48242
     12,60000	      3,48198	      3,48247
     12,70000	      3,48206	      3,48252
     12,80000	      3,48221	      3,48257
     12,90000	      3,48228	      3,48262
     13,00000	      3,48228	      3,48266
     13,10000	      3,48244	      3,48271
     13,20000	      3,48244	      3,48276
     13,30000	      3,48259	      3,48280
     13,40000	      3,48267	      3,48285
     13,50000	      3,48259	      3,48289
     13,60000	      3,48259	      3,48293
     13,70000	      3,48267	      3,48298
     13,80000	      3,48267	      3,48302
     13,90000	      3,48274	      3,48306
     14,00000	      3,48282	      3,48310
     14,10000	      3,48289	      3,48314
     14,20000	      3,48289	      3,48318
     14,30000	      3,48297	      3,48322
     14,40000	      3,48305	      3,48326
     14,50000	      3,48305	      3,48330
     14,60000	      3,48312	      3,48334
     14,70000	      3,48312	      3,48338
     14,80000	      3,48328	      3,48342
     14,90000	      3,48328	      3,48345
     15,00000	      3,48335	      3,48349
     15,10000	      3,48343	      3,48353
     15,20000	      3,48343	      3,48357
     15,30000	      3,48351	      3,48360
     15,40000	      3,48358	      3,48364
     15,50000	      3,48366	      3,48367
     15,60000	      3,48373	      3,48371
     15,70000	      3,48381	      3,48374
     15,80000	      3,48381	      3,48378
     15,90000	      3,48389	      3,48381
     16,00000	      3,48389	      3,48385
     16,10000	      3,48396	      3,48388
     16,20000	      3,48404	      3,48391
     16,30000	      3,48404	      3,48395
     16,40000	      3,48412	      3,48398
     16,50000	      3,48412	      3,48401
     16,60000	      3,48419	      3,48405
     16,70000	      3,48427	      3,48408
     16,80000	      3,48427	      3,48411
     16,90000	      3,48434	      3,48414
     17,00000	      3,48434	      3,48418
     17,10000	      3,48442	      3,48421
     17,20000	      3,48450	      3,48424
     17,30000	      3,48450	      3,48427
     17,40000	      3,48450	      3,48430
     17,50000	      3,48450	      3,48433
     17,60000	      3,48457	      3,48436
     17,70000	      3,48457	      3,48439
     17,80000	      3,48457	      3,48442
     17,90000	      3,48465	      3,48445
     18,00000	      3,48465	      3,48448
     18,10000	      3,48465	      3,48451
     18,20000	      3,48473	      3,48454
     18,30000	      3,48473	      3,48457
     18,40000	      3,48480	      3,48460
     18,50000	      3,48488	      3,48463
     18,60000	      3,48495	      3,48466
     18,70000	      3,48495	      3,48469
     18,80000	      3,48503	      3,48472
     18,90000	      3,48503	      3,48475
     19,00000	      3,48511	      3,48477
     19,10000	      3,48511	      3,48480
     19,20000	      3,48511	      3,48483
     19,30000	      3,48518	      3,48486
     19,40000	      3,48526	      3,48489
     19,50000	      3,48526	      3,48492
     19,60000	      3,48534	      3,48494
     19,70000	      3,48541	      3,48497
     19,80000	      3,48541	      3,48500
     19,90000	      3,48549	      3,48503
     20,00000	      3,48557	      3,48505
     20,10000	      3,48557	      3,48508
     20,20000	      3,48557	      3,48511
     20,30000	      3,48557	      3,48514
     20,40000	      3,48564	      3,48516
     20,50000	      3,48564	      3,48519
     20,60000	      3,48557	      3,48522
     20,70000	      3,48564	      3,48524
     20,80000	      3,48564	      3,48527
     20,90000	      3,48564	      3,48530
     21,00000	      3,48572	      3,48532
     21,10000	      3,48572	      3,48535
     21,20000	      3,48572	      3,48537
     21,30000	      3,48579	      3,48540
     21,40000	      3,48579	      3,48543
     21,50000	      3,48579	      3,48545
     21,60000	      3,48587	      3,48548
     21,70000	      3,48587	      3,48550
     21,80000	      3,48595	      3,48553
     21,90000	      3,48602	      3,48556
     22,00000	      3,48602	      3,48558
     22,10000	      3,48610	      3,48561
     22,20000	      3,48610	      3,48563
     22,30000	      3,48618	      3,48566
     22,40000	      3,48625	      3,48568
     22,50000	      3,48625	      3,48571
     22,60000	      3,48633	      3,48573
     22,70000	      3,48633	      3,48576
     22,80000	      3,48633	      3,48578
     22,90000	      3,48633	      3,48581
     23,00000	      3,48633	      3,48583
     23,10000	      3,48640	      3,48586
     23,20000	      3,48640	      3,48588
     23,30000	      3,48640	      3,48591
     23,40000	      3,48640	      3,48593
     23,50000	      3,48648	      3,48596
     23,60000	      3,48648	      3,48598
     23,70000	      3,48656	      3,48601
     23,80000	      3,48656	      3,48603
     23,90000	      3,48663	      3,48606
     24,00000	      3,48663	      3,48608
     24,10000	      3,48671	      3,48610
     24,20000	      3,48663	      3,48613
     24,30000	      3,48663	      3,48615
     24,40000	      3,48663	      3,48618
     24,50000	      3,48656	      3,48620
     24,60000	      3,48671	      3,48622
     24,70000	      3,48663	      3,48625
     24,80000	      3,48671	      3,48627
     24,90000	      3,48679	      3,48630
     25,00000	      3,48679	      3,48632
     25,10000	      3,48679	      3,48634
     25,20000	      3,48694	      3,48637
     25,30000	      3,48701	      3,48639
     25,40000	      3,48701	      3,48641
     25,50000	      3,48701	      3,48644
     25,60000	      3,48709	      3,48646
     25,70000	      3,48709	      3,48648
     25,80000	      3,48709	      3,48651
     25,90000	      3,48717	      3,48653
     26,00000	      3,48717	      3,48655
     26,10000	      3,48724	      3,48658
     26,20000	      3,48709	      3,48660
     26,30000	      3,48717	      3,48662
     26,40000	      3,48717	      3,48665
     26,50000	      3,48717	      3,48667
     26,60000	      3,48717	      3,48669
     26,70000	      3,48717	      3,48672
     26,80000	      3,48709	      3,48674
     26,90000	      3,48740	      3,48676
     27,00000	      3,48740	      3,48678
     27,10000	      3,48740	      3,48681
     27,20000	      3,48740	      3,48683
     27,30000	      3,48740	      3,48685
     27,40000	      3,48740	      3,48687
     27,50000	      3,48740	      3,48690
     27,60000	      3,48740	      3,48692
     27,70000	      3,48740	      3,48694
     27,80000	      3,48740	      3,48696
     27,90000	      3,48740	      3,48699
     28,00000	      3,48740	      3,48701
     28,10000	      3,48747	      3,48703
     28,20000	      3,48724	      3,48705
     28,30000	      3,48747	      3,48708
     28,40000	      3,48747	      3,48710
     28,50000	      3,48755	      3,48712
     28,60000	      3,48755	      3,48714
     28,70000	      3,48755	      3,48716
     28,80000	      3,48755	      3,48719
     28,90000	      3,48755	      3,48721
     29,00000	      3,48755	      3,48723
     29,10000	      3,48763	      3,48725
     29,20000	      3,48763	      3,48727
     29,30000	      3,48763	      3,48729
     29,40000	      3,48770	      3,48732
     29,50000	      3,48763	      3,48734
     29,60000	      3,48770	      3,48736
     29,70000	      3,48763	      3,48738
     29,80000	      3,48770	      3,48740
     29,90000	      3,48770	      3,48742
     30,00000	      3,48778	      3,48745
     30,10000	      3,48778	      3,48747
     30,20000	      3,48778	      3,48749
     30,30000	      3,48785	      3,48751
     30,40000	      3,48785	      3,48753
     30,50000	      3,48793	      3,48755
     30,60000	      3,48785	      3,48757
     30,70000	      3,48793	      3,48760
     30,80000	      3,48801	      3,48762
     30,90000	      3,48801	      3,48764
     31,00000	      3,48808	      3,48766
     31,10000	      3,48816	      3,48768
     31,20000	      3,48816	      3,48770
     31,30000	      3,48816	      3,48772
     31,40000	      3,48824	      3,48774
     31,50000	      3,48816	      3,48776
     31,60000	      3,48824	      3,48778
     31,70000	      3,48824	      3,48780
     31,80000	      3,48831	      3,48783
     31,90000	      3,48831	      3,48785
     32,00000	      3,48831	      3,48787
     32,10000	      3,48839	      3,48789
     32,20000	      3,48839	      3,48791
     32,30000	      3,48839	      3,48793
     32,40000	      3,48839	      3,48795
     32,50000	      3,48846	      3,48797
     32,60000	      3,48846	      3,48799
     32,70000	      3,48846	      3,48801
     32,80000	      3,48846	      3,48803
     32,90000	      3,48854	      3,48805
     33,00000	      3,48854	      3,48807
     33,10000	      3,48854	      3,48809
     33,20000	      3,48854	      3,48811
     33,30000	      3,48854	      3,48813
     33,40000	      3,48854	      3,48815
     33,50000	      3,48854	      3,48817
     33,60000	      3,48862	      3,48819
     33,70000	      3,48862	      3,48821
     33,80000	      3,48862	      3,48823
     33,90000	      3,48862	      3,48825
     34,00000	      3,48892	      3,48827
     34,10000	      3,48892	      3,48829
     34,20000	      3,48892	      3,48831
     34,30000	      3,48892	      3,48833
     34,40000	      3,48900	      3,48835
     34,50000	      3,48900	      3,48837
     34,60000	      3,48907	      3,48839
     34,70000	      3,48907	      3,48841
     34,80000	      3,48915	      3,48843
     34,90000	      3,48915	      3,48845
     35,00000	      3,48915	      3,48847
     35,10000	      3,48915	      3,48849
     35,20000	      3,48915	      3,48851
     35,30000	      3,48915	      3,48853
     35,40000	      3,48915	      3,48855
     35,50000	      3,48915	      3,48857
     35,60000	      3,48907	      3,48859
     35,70000	      3,48907	      3,48861
     35,80000	      3,48900	      3,48862
     35,90000	      3,48907	      3,48864
     36,00000	      3,48907	      3,48866
     36,10000	      3,48907	      3,48868
     36,20000	      3,48907	      3,48870
     36,30000	      3,48907	      3,48872
     36,40000	      3,48915	      3,48874
     36,50000	      3,48915	      3,48876
     36,60000	      3,48915	      3,48878
     36,70000	      3,48923	      3,48880
     36,80000	      3,48923	      3,48882
     36,90000	      3,48923	      3,48883
     37,00000	      3,48923	      3,48885
     37,10000	      3,48923	      3,48887
     37,20000	      3,48930	      3,48889
     37,30000	      3,48930	      3,48891
     37,40000	      3,48930	      3,48893
     37,50000	      3,48930	      3,48895
     37,60000	      3,48930	      3,48897
     37,70000	      3,48930	      3,48898
     37,80000	      3,48930	      3,48900
     37,90000	      3,48930	      3,48902
     38,00000	      3,48930	      3,48904
     38,10000	      3,48930	      3,48906
     38,20000	      3,48930	      3,48908
     38,30000	      3,48930	      3,48910
     38,40000	      3,48930	      3,48911
     38,50000	      3,48938	      3,48913
     38,60000	      3,48938	      3,48915
     38,70000	      3,48915	      3,48917
     38,80000	      3,48930	      3,48919
     38,90000	      3,48938	      3,48921
     39,00000	      3,48938	      3,48922
     39,10000	      3,48938	      3,48924
     39,20000	      3,48938	      3,48926
     39,30000	      3,48946	      3,48928
     39,40000	      3,48946	      3,48930
     39,50000	      3,48946	      3,48931
     39,60000	      3,48946	      3,48933
     39,70000	      3,48923	      3,48935
     39,80000	      3,48946	      3,48937
     39,90000	      3,48946	      3,48939
     40,00000	      3,48946	      3,48940
     40,10000	      3,48946	      3,48942
     40,20000	      3,48946	      3,48944
     40,30000	      3,48953	      3,48946
     40,40000	      3,48953	      3,48947
     40,50000	      3,48953	      3,48949
     40,60000	      3,48961	      3,48951
     40,70000	      3,48946	      3,48953
     40,80000	      3,48946	      3,48955
     40,90000	      3,48946	      3,48956
     41,00000	      3,48953	      3,48958
     41,10000	      3,48953	      3,48960
     41,20000	      3,48953	      3,48962
     41,30000	      3,48953	      3,48963
     41,40000	      3,48953	      3,48965
     41,50000	      3,48961	      3,48967
     41,60000	      3,48961	      3,48969
     41,70000	      3,48969	      3,48970
     41,80000	      3,48969	      3,48972
     41,90000	      3,48969	      3,48974
     42,00000	      3,48999	      3,48975
     42,10000	      3,49007	      3,48977
     42,20000	      3,49007	      3,48979
     42,30000	      3,49007	      3,48981
     42,40000	      3,49014	      3,48982
     42,50000	      3,49014	      3,48984
     42,60000	      3,49014	      3,48986
     42,70000	      3,49014	      3,48987
     42,80000	      3,49014	      3,48989
     42,90000	      3,49014	      3,48991
     43,00000	      3,49007	      3,48993
     43,10000	      3,48999	      3,48994
     43,20000	      3,48999	      3,48996
     43,30000	      3,49007	      3,48998
     43,40000	      3,49007	      3,48999
     43,50000	      3,48999	      3,49001
     43,60000	      3,48999	      3,49003
     43,70000	      3,48999	      3,49004
     43,80000	      3,48999	      3,49006
     43,90000	      3,48999	      3,49008
     44,00000	      3,49007	      3,49009
     44,10000	      3,49007	      3,49011
     44,20000	      3,49007	      3,49013
     44,30000	      3,49014	      3,49014
     44,40000	      3,49014	      3,49016
     44,50000	      3,49014	      3,49018
     44,60000	      3,49022	      3,49019
     44,70000	      3,49022	      3,49021
     44,80000	      3,49022	      3,49022
     44,90000	      3,49030	      3,49024
     45,00000	      3,49022	      3,49026
     45,10000	      3,49022	      3,49027
     45,20000	      3,49030	      3,49029
     45,30000	      3,49030	      3,49031
     45,40000	      3,49030	      3,49032
     45,50000	      3,49030	      3,49034
     45,60000	      3,49037	      3,49035
     45,70000	      3,49037	      3,49037
     45,80000	      3,49037	      3,49039
     45,90000	      3,49037	      3,49040
     46,00000	      3,49037	      3,49042
     46,10000	      3,49037	      3,49044
     46,20000	      3,49037	      3,49045
     46,30000	      3,49037	      3,49047
     46,40000	      3,49045	      3,49048
     46,50000	      3,49045	      3,49050
     46,60000	      3,49045	      3,49051
     46,70000	      3,49030	      3,49053
     46,80000	      3,49037	      3,49055
     46,90000	      3,49037	      3,49056
     47,00000	      3,49037	      3,49058
     47,10000	      3,49037	      3,49059
     47,20000	      3,49045	      3,49061
     47,30000	      3,49045	      3,49063
     47,40000	      3,49045	      3,49064
     47,50000	      3,49045	      3,49066
     47,60000	      3,49052	      3,49067
     47,70000	      3,49052	      3,49069
     47,80000	      3,49052	      3,49070
     47,90000	      3,49052	      3,49072
     48,00000	      3,49045	      3,49073
     48,10000	      3,49045	      3,49075
     48,20000	      3,49052	      3,49076
     48,30000	      3,49052	      3,49078
     48,40000	      3,49052	      3,49080
     48,50000	      3,49052	      3,49081
     48,60000	      3,49052	      3,49083
     48,70000	      3,49060	      3,49084
     48,80000	      3,49060	      3,49086
     48,90000	      3,49060	      3,49087
     49,00000	      3,49060	      3,49089
     49,10000	      3,49060	      3,49090
     49,20000	      3,49060	      3,49092
     49,30000	      3,49060	      3,49093
     49,40000	      3,49068	      3,49095
     49,50000	      3,49068	      3,49096
     49,60000	      3,49068	      3,49098
     49,70000	      3,49075	      3,49099
     49,80000	      3,49075	      3,49101
     49,90000	      3,49075	      3,49102
     50,00000	      3,49075	      3,49104
     50,10000	      3,49075	      3,49105
     50,20000	      3,49075	      3,49107
     50,30000	      3,49075	      3,49108
     50,40000	      3,49075	      3,49110
     50,50000	      3,49083	      3,49111
     50,60000	      3,49083	      3,49113
     50,70000	      3,49083	      3,49114
     50,80000	      3,49083	      3,49116
     50,90000	      3,49083	      3,49117
     51,00000	      3,49083	      3,49119
     51,10000	      3,49091	      3,49120
     51,20000	      3,49091	      3,49121
     51,30000	      3,49091	      3,49123
     51,40000	      3,49098	      3,49124
     51,50000	      3,49098	      3,49126
     51,60000	      3,49098	      3,49127
     51,70000	      3,49098	      3,49129
     51,80000	      3,49106	      3,49130
     51,90000	      3,49106	      3,49132
     52,00000	      3,49113	      3,49133
     52,10000	      3,49113	      3,49135
     52,20000	      3,49121	      3,49136
     52,30000	      3,49144	      3,49137
     52,40000	      3,49144	      3,49139
     52,50000	      3,49144	      3,49140
     52,60000	      3,49144	      3,49142
     52,70000	      3,49144	      3,49143
     52,80000	      3,49144	      3,49144
     52,90000	      3,49144	      3,49146
     53,00000	      3,49144	      3,49147
     53,10000	      3,49144	      3,49149
     53,20000	      3,49144	      3,49150
     53,30000	      3,49144	      3,49152
     53,40000	      3,49144	      3,49153
     53,50000	      3,49144	      3,49154
     53,60000	      3,49144	      3,49156
     53,70000	      3,49144	      3,49157
     53,80000	      3,49144	      3,49159
     53,90000	      3,49144	      3,49160
     54,00000	      3,49152	      3,49161
     54,10000	      3,49152	      3,49163
     54,20000	      3,49152	      3,49164
     54,30000	      3,49159	      3,49165
     54,40000	      3,49167	      3,49167
     54,50000	      3,49174	      3,49168
     54,60000	      3,49182	      3,49170
     54,70000	      3,49182	      3,49171
     54,80000	      3,49190	      3,49172
     54,90000	      3,49190	      3,49174
     55,00000	      3,49190	      3,49175
     55,10000	      3,49197	      3,49176
     55,20000	      3,49190	      3,49178
     55,30000	      3,49190	      3,49179
     55,40000	      3,49190	      3,49181
     55,50000	      3,49167	      3,49182
     55,60000	      3,49167	      3,49183
     55,70000	      3,49167	      3,49185
     55,80000	      3,49167	      3,49186
     55,90000	      3,49167	      3,49187
     56,00000	      3,49174	      3,49189
     56,10000	      3,49182	      3,49190
     56,20000	      3,49182	      3,49191
     56,30000	      3,49190	      3,49193
     56,40000	      3,49190	      3,49194
     56,50000	      3,49190	      3,49195
     56,60000	      3,49197	      3,49197
     56,70000	      3,49197	      3,49198
     56,80000	      3,49197	      3,49199
     56,90000	      3,49205	      3,49201
     57,00000	      3,49197	      3,49202
     57,10000	      3,49197	      3,49203
     57,20000	      3,49190	      3,49205
     57,30000	      3,49182	      3,49206
     57,40000	      3,49174	      3,49207
     57,50000	      3,49174	      3,49208
     57,60000	      3,49174	      3,49210
     57,70000	      3,49174	      3,49211
     57,80000	      3,49182	      3,49212
     57,90000	      3,49182	      3,49214
     58,00000	      3,49190	      3,49215
     58,10000	      3,49197	      3,49216
     58,20000	      3,49205	      3,49217
     58,30000	      3,49213	      3,49219
     58,40000	      3,49197	      3,49220
     58,50000	      3,49205	      3,49221
     58,60000	      3,49197	      3,49223
     58,70000	      3,49197	      3,49224
     58,80000	      3,49197	      3,49225
     58,90000	      3,49205	      3,49226
     59,00000	      3,49205	      3,49228
     59,10000	      3,49213	      3,49229
     59,20000	      3,49213	      3,49230
     59,30000	      3,49213	      3,49232
     59,40000	      3,49213	      3,49233
     59,50000	      3,49220	      3,49234
     59,60000	      3,49220	      3,49235
     59,70000	      3,49220	      3,49237
     59,80000	      3,49220	      3,49238
     59,90000	      3,49220	      3,49239
     60,00000	      3,49220	      3,49240
     60,10000	      3,49220	      3,49242
     60,20000	      3,49213	      3,49243
     60,30000	      3,49220	      3,49244
     60,40000	      3,49213	      3,49245
     60,50000	      3,49213	      3,49246
     60,60000	      3,49213	      3,49248
     60,70000	      3,49205	      3,49249
     60,80000	      3,49213	      3,49250
     60,90000	      3,49205	      3,49251
     61,00000	      3,49213	      3,49253
     61,10000	      3,49213	      3,49254
     61,20000	      3,49220	      3,49255
     61,30000	      3,49258	      3,49256
     61,40000	      3,49251	      3,49258
     61,50000	      3,49251	      3,49259
     61,60000	      3,49243	      3,49260
     61,70000	      3,49243	      3,49261
     61,80000	      3,49236	      3,49262
     61,90000	      3,49236	      3,49264
     62,00000	      3,49228	      3,49265
     62,10000	      3,49228	      3,49266
     62,20000	      3,49228	      3,49267
     62,30000	      3,49228	      3,49268
     62,40000	      3,49236	      3,49270
     62,50000	      3,49236	      3,49271
     62,60000	      3,49236	      3,49272
     62,70000	      3,49243	      3,49273
     62,80000	      3,49251	      3,49274
     62,90000	      3,49251	      3,49276
     63,00000	      3,49258	      3,49277
     63,10000	      3,49266	      3,49278
     63,20000	      3,49266	      3,49279
     63,30000	      3,49274	      3,49280
     63,40000	      3,49274	      3,49281
     63,50000	      3,49274	      3,49283
     63,60000	      3,49274	      3,49284
     63,70000	      3,49281	      3,49285
     63,80000	      3,49281	      3,49286
     63,90000	      3,49281	      3,49287
     64,00000	      3,49281	      3,49288
     64,10000	      3,49281	      3,49290
     64,20000	      3,49281	      3,49291
     64,30000	      3,49289	      3,49292
     64,40000	      3,49289	      3,49293
     64,50000	      3,49289	      3,49294
     64,60000	      3,49289	      3,49295
     64,70000	      3,49289	      3,49296
     64,80000	      3,49289	      3,49298
     64,90000	      3,49289	      3,49299
     65,00000	      3,49289	      3,49300
     65,10000	      3,49289	      3,49301
     65,20000	      3,49281	      3,49302
     65,30000	      3,49281	      3,49303
     65,40000	      3,49281	      3,49304
     65,50000	      3,49274	      3,49306
     65,60000	      3,49274	      3,49307
     65,70000	      3,49274	      3,49308
     65,80000	      3,49274	      3,49309
     65,90000	      3,49274	      3,49310
     66,00000	      3,49274	      3,49311
     66,10000	      3,49274	      3,49312
     66,20000	      3,49266	      3,49313
     66,30000	      3,49274	      3,49315
     66,40000	      3,49274	      3,49316
     66,50000	      3,49274	      3,49317
     66,60000	      3,49274	      3,49318
     66,70000	      3,49274	      3,49319
     66,80000	      3,49274	      3,49320
     66,90000	      3,49266	      3,49321
     67,00000	      3,49274	      3,49322
     67,10000	      3,49274	      3,49323
     67,20000	      3,49266	      3,49324
     67,30000	      3,49274	      3,49326
     67,40000	      3,49281	      3,49327
     67,50000	      3,49281	      3,49328
     67,60000	      3,49274	      3,49329
     67,70000	      3,49274	      3,49330
     67,80000	      3,49281	      3,49331
     67,90000	      3,49281	      3,49332
     68,00000	      3,49281	      3,49333
     68,10000	      3,49281	      3,49334
     68,20000	      3,49281	      3,49335
     68,30000	      3,49289	      3,49336
     68,40000	      3,49281	      3,49337
     68,50000	      3,49289	      3,49339
     68,60000	      3,49289	      3,49340
     68,70000	      3,49289	      3,49341
     68,80000	      3,49289	      3,49342
     68,90000	      3,49289	      3,49343
     69,00000	      3,49289	      3,49344
     69,10000	      3,49297	      3,49345
     69,20000	      3,49297	      3,49346
     69,30000	      3,49297	      3,49347
     69,40000	      3,49297	      3,49348
     69,50000	      3,49297	      3,49349
     69,60000	      3,49297	      3,49350
     69,70000	      3,49297	      3,49351
     69,80000	      3,49304	      3,49352
     69,90000	      3,49304	      3,49353
     70,00000	      3,49319	      3,49354
     70,10000	      3,49319	      3,49355
     70,20000	      3,49319	      3,49356
     70,30000	      3,49327	      3,49357
     70,40000	      3,49327	      3,49359
     70,50000	      3,49327	      3,49360
     70,60000	      3,49335	      3,49361
     70,70000	      3,49335	      3,49362
     70,80000	      3,49342	      3,49363
     70,90000	      3,49342	      3,49364
     71,00000	      3,49350	      3,49365
     71,10000	      3,49350	      3,49366
     71,20000	      3,49350	      3,49367
     71,30000	      3,49358	      3,49368
     71,40000	      3,49365	      3,49369
     71,50000	      3,49365	      3,49370
     71,60000	      3,49358	      3,49371
     71,70000	      3,49365	      3,49372
     71,80000	      3,49365	      3,49373
     71,90000	      3,49365	      3,49374
     72,00000	      3,49373	      3,49375
     72,10000	      3,49373	      3,49376
     72,20000	      3,49365	      3,49377
     72,30000	      3,49365	      3,49378
     72,40000	      3,49373	      3,49379
     72,50000	      3,49373	      3,49380
     72,60000	      3,49380	      3,49381
     72,70000	      3,49380	      3,49382
     72,80000	      3,49380	      3,49383
     72,90000	      3,49380	      3,49384
     73,00000	      3,49380	      3,49385
     73,10000	      3,49380	      3,49386
     73,20000	      3,49380	      3,49387
     73,30000	      3,49373	      3,49388
     73,40000	      3,49373	      3,49389
     73,50000	      3,49373	      3,49390
     73,60000	      3,49380	      3,49391
     73,70000	      3,49380	      3,49392
     73,80000	      3,49380	      3,49393
     73,90000	      3,49380	      3,49394
     74,00000	      3,49388	      3,49395
     74,10000	      3,49388	      3,49396
     74,20000	      3,49380	      3,49396
     74,30000	      3,49380	      3,49397
     74,40000	      3,49388	      3,49398
     74,50000	      3,49380	      3,49399
     74,60000	      3,49388	      3,49400
     74,70000	      3,49388	      3,49401
     74,80000	      3,49388	      3,49402
     74,90000	      3,49388	      3,49403
     75,00000	      3,49380	      3,49404
     75,10000	      3,49388	      3,49405
     75,20000	      3,49380	      3,49406
     75,30000	      3,49380	      3,49407
     75,40000	      3,49380	      3,49408
     75,50000	      3,49380	      3,49409
     75,60000	      3,49380	      3,49410
     75,70000	      3,49380	      3,49411
     75,80000	      3,49373	      3,49412
     75,90000	      3,49373	      3,49413
     76,00000	      3,49373	      3,49414
     76,10000	      3,49373	      3,49415
     76,20000	      3,49373	      3,49415
     76,30000	      3,49365	      3,49416
     76,40000	      3,49365	      3,49417
     76,50000	      3,49365	      3,49418
     76,60000	      3,49365	      3,49419
     76,70000	      3,49365	      3,49420
     76,80000	      3,49365	      3,49421
     76,90000	      3,49365	      3,49422
     77,00000	      3,49365	      3,49423
     77,10000	      3,49373	      3,49424
     77,20000	      3,49365	      3,49425
     77,30000	      3,49365	      3,49426
     77,40000	      3,49365	      3,49427
     77,50000	      3,49373	      3,49427
     77,60000	      3,49373	      3,49428
     77,70000	      3,49373	      3,49429
     77,80000	      3,49373	      3,49430
     77,90000	      3,49373	      3,49431
     78,00000	      3,49380	      3,49432
     78,10000	      3,49380	      3,49433
     78,20000	      3,49380	      3,49434
     78,30000	      3,49388	      3,49435
     78,40000	      3,49388	      3,49436
     78,50000	      3,49388	      3,49436
     78,60000	      3,49388	      3,49437
     78,70000	      3,49396	      3,49438
     78,80000	      3,49388	      3,49439
     78,90000	      3,49396	      3,49440
     79,00000	      3,49396	      3,49441
     79,10000	      3,49403	      3,49442
     79,20000	      3,49403	      3,49443
     79,30000	      3,49419	      3,49444
     79,40000	      3,49419	      3,49444
     79,50000	      3,49426	      3,49445
     79,60000	      3,49426	      3,49446
     79,70000	      3,49426	      3,49447
     79,80000	      3,49426	      3,49448
     79,90000	      3,49419	      3,49449
     80,00000	      3,49426	      3,49450
     80,10000	      3,49419	      3,49451
     80,20000	      3,49419	      3,49451
     80,30000	      3,49419	      3,49452
     80,40000	      3,49419	      3,49453
     80,50000	      3,49419	      3,49454
     80,60000	      3,49419	      3,49455
     80,70000	      3,49419	      3,49456
     80,80000	      3,49426	      3,49457
     80,90000	      3,49426	      3,49457
     81,00000	      3,49434	      3,49458
     81,10000	      3,49442	      3,49459
     81,20000	      3,49442	      3,49460
     81,30000	      3,49449	      3,49461
     81,40000	      3,49449	      3,49462
     81,50000	      3,49449	      3,49463
     81,60000	      3,49457	      3,49463
     81,70000	      3,49464	      3,49464
     81,80000	      3,49457	      3,49465
     81,90000	      3,49457	      3,49466
     82,00000	      3,49464	      3,49467
     82,10000	      3,49464	      3,49468
     82,20000	      3,49457	      3,49468
     82,30000	      3,49464	      3,49469
     82,40000	      3,49457	      3,49470
     82,50000	      3,49457	      3,49471
     82,60000	      3,49457	      3,49472
     82,70000	      3,49457	      3,49473
     82,80000	      3,49464	      3,49473
     82,90000	      3,49464	      3,49474
     83,00000	      3,49464	      3,49475
     83,10000	      3,49464	      3,49476
     83,20000	      3,49464	      3,49477
     83,30000	      3,49464	      3,49478
     83,40000	      3,49472	      3,49478
     83,50000	      3,49472	      3,49479
     83,60000	      3,49472	      3,49480
     83,70000	      3,49457	      3,49481
     83,80000	      3,49457	      3,49482
     83,90000	      3,49464	      3,49482
     84,00000	      3,49464	      3,49483
     84,10000	      3,49464	      3,49484
     84,20000	      3,49464	      3,49485
     84,30000	      3,49464	      3,49486
     84,40000	      3,49464	      3,49486
     84,50000	      3,49464	      3,49487
     84,60000	      3,49464	      3,49488
     84,70000	      3,49464	      3,49489
     84,80000	      3,49464	      3,49490
     84,90000	      3,49464	      3,49490
     85,00000	      3,49457	      3,49491
     85,10000	      3,49457	      3,49492
     85,20000	      3,49457	      3,49493
     85,30000	      3,49457	      3,49494
     85,40000	      3,49457	      3,49494
     85,50000	      3,49457	      3,49495
     85,60000	      3,49457	      3,49496
     85,70000	      3,49449	      3,49497
     85,80000	      3,49480	      3,49498
     85,90000	      3,49480	      3,49498
     86,00000	      3,49480	      3,49499
     86,10000	      3,49487	      3,49500
     86,20000	      3,49480	      3,49501
     86,30000	      3,49487	      3,49501
     86,40000	      3,49487	      3,49502
     86,50000	      3,49487	      3,49503
     86,60000	      3,49495	      3,49504
     86,70000	      3,49495	      3,49505
     86,80000	      3,49503	      3,49505
     86,90000	      3,49503	      3,49506
     87,00000	      3,49510	      3,49507
     87,10000	      3,49518	      3,49508
     87,20000	      3,49518	      3,49508
     87,30000	      3,49518	      3,49509
     87,40000	      3,49510	      3,49510
     87,50000	      3,49510	      3,49511
     87,60000	      3,49510	      3,49511
     87,70000	      3,49510	      3,49512
     87,80000	      3,49510	      3,49513
     87,90000	      3,49495	      3,49514
     88,00000	      3,49495	      3,49514
     88,10000	      3,49495	      3,49515
     88,20000	      3,49487	      3,49516
     88,30000	      3,49487	      3,49517
     88,40000	      3,49487	      3,49517
     88,50000	      3,49487	      3,49518
     88,60000	      3,49487	      3,49519
     88,70000	      3,49487	      3,49520
     88,80000	      3,49487	      3,49520
     88,90000	      3,49487	      3,49521
     89,00000	      3,49487	      3,49522
     89,10000	      3,49495	      3,49523
     89,20000	      3,49495	      3,49523
     89,30000	      3,49495	      3,49524
     89,40000	      3,49495	      3,49525
     89,50000	      3,49495	      3,49526
     89,60000	      3,49495	      3,49526
     89,70000	      3,49495	      3,49527
     89,80000	      3,49495	      3,49528
     89,90000	      3,49503	      3,49529
     90,00000	      3,49503	      3,49529
     90,10000	      3,49503	      3,49530
     90,20000	      3,49503	      3,49531
     90,30000	      3,49503	      3,49531
     90,40000	      3,49510	      3,49532
     90,50000	      3,49510	      3,49533
     90,60000	      3,49518	      3,49534
     90,70000	      3,49518	      3,49534
     90,80000	      3,49518	      3,49535
     90,90000	      3,49518	      3,49536
     91,00000	      3,49518	      3,49536
     91,10000	      3,49518	      3,49537
     91,20000	      3,49525	      3,49538
     91,30000	      3,49525	      3,49539
     91,40000	      3,49533	      3,49539
     91,50000	      3,49533	      3,49540
     91,60000	      3,49533	      3,49541
     91,70000	      3,49533	      3,49541
     91,80000	      3,49533	      3,49542
     91,90000	      3,49533	      3,49543
     92,00000	      3,49525	      3,49544
     92,10000	      3,49525	      3,49544
     92,20000	      3,49533	      3,49545
     92,30000	      3,49525	      3,49546
     92,40000	      3,49525	      3,49546
     92,50000	      3,49525	      3,49547
     92,60000	      3,49525	      3,49548
     92,70000	      3,49525	      3,49548
     92,80000	      3,49533	      3,49549
     92,90000	      3,49533	      3,49550
     93,00000	      3,49533	      3,49551
     93,10000	      3,49533	      3,49551
     93,20000	      3,49533	      3,49552
     93,30000	      3,49533	      3,49553
     93,40000	      3,49533	      3,49553
     93,50000	      3,49533	      3,49554
     93,60000	      3,49533	      3,49555
     93,70000	      3,49533	      3,49555
     93,80000	      3,49533	      3,49556
     93,90000	      3,49533	      3,49557
     94,00000	      3,49533	      3,49557
     94,10000	      3,49533	      3,49558
     94,20000	      3,49533	      3,49559
     94,30000	      3,49533	      3,49559
     94,40000	      3,49533	      3,49560
     94,50000	      3,49533	      3,49561
     94,60000	      3,49533	      3,49561
     94,70000	      3,49541	      3,49562
     94,80000	      3,49533	      3,49563
     94,90000	      3,49533	      3,49563
     95,00000	      3,49533	      3,49564
     95,10000	      3,49541	      3,49565
     95,20000	      3,49541	      3,49565
     95,30000	      3,49533	      3,49566
     95,40000	      3,49541	      3,49567
     95,50000	      3,49533	      3,49567
     95,60000	      3,49541	      3,49568
     95,70000	      3,49541	      3,49569
     95,80000	      3,49541	      3,49569
     95,90000	      3,49541	      3,49570
     96,00000	      3,49541	      3,49571
     96,10000	      3,49541	      3,49571
     96,20000	      3,49541	      3,49572
     96,30000	      3,49564	      3,49573
     96,40000	      3,49564	      3,49573
     96,50000	      3,49564	      3,49574
     96,60000	      3,49564	      3,49575
     96,70000	      3,49564	      3,49575
     96,80000	      3,49571	      3,49576
     96,90000	      3,49571	      3,49576
     97,00000	      3,49571	      3,49577
     97,10000	      3,49564	      3,49578
     97,20000	      3,49564	      3,49578
     97,30000	      3,49571	      3,49579
     97,40000	      3,49571	      3,49580
     97,50000	      3,49571	      3,49580
     97,60000	      3,49571	      3,49581
     97,70000	      3,49571	      3,49582
     97,80000	      3,49579	      3,49582
     97,90000	      3,49579	      3,49583
     98,00000	      3,49579	      3,49583
     98,10000	      3,49579	      3,49584
     98,20000	      3,49579	      3,49585
     98,30000	      3,49586	      3,49585
     98,40000	      3,49586	      3,49586
     98,50000	      3,49586	      3,49587
     98,60000	      3,49586	      3,49587
     98,70000	      3,49586	      3,49588
     98,80000	      3,49586	      3,49588
     98,90000	      3,49586	      3,49589
     99,00000	      3,49586	      3,49590
     99,10000	      3,49586	      3,49590
     99,20000	      3,49586	      3,49591
     99,30000	      3,49586	      3,49592
     99,40000	      3,49586	      3,49592
     99,50000	      3,49586	      3,49593
     99,60000	      3,49586	      3,49593
     99,70000	      3,49586	      3,49594
     99,80000	      3,49586	      3,49595
     99,90000	      3,49586	      3,49595
    100,00000	      3,49594	      3,49596
    100,10000	      3,49594	      3,49596
    100,20000	      3,49594	      3,49597
    100,30000	      3,49594	      3,49598
    100,40000	      3,49602	      3,49598
    100,50000	      3,49602	      3,49599
    100,60000	      3,49602	      3,49599
    100,70000	      3,49602	      3,49600
    100,80000	      3,49602	      3,49601
    100,90000	      3,49609	      3,49601
    101,00000	      3,49609	      3,49602
    101,10000	      3,49609	      3,49602
    101,20000	      3,49609	      3,49603
    101,30000	      3,49609	      3,49604
    101,40000	      3,49609	      3,49604
    101,50000	      3,49617	      3,49605
    101,60000	      3,49617	      3,49605
    101,70000	      3,49617	      3,49606
    101,80000	      3,49617	      3,49607
    101,90000	      3,49617	      3,49607
    102,00000	      3,49625	      3,49608
    102,10000	      3,49625	      3,49608
    102,20000	      3,49617	      3,49609
    102,30000	      3,49617	      3,49609
    102,40000	      3,49617	      3,49610
    102,50000	      3,49617	      3,49611
    102,60000	      3,49617	      3,49611
    102,70000	      3,49617	      3,49612
    102,80000	      3,49617	      3,49612
    102,90000	      3,49625	      3,49613
    103,00000	      3,49617	      3,49614
    103,10000	      3,49609	      3,49614
    103,20000	      3,49609	      3,49615
    103,30000	      3,49617	      3,49615
    103,40000	      3,49617	      3,49616
    103,50000	      3,49609	      3,49616
    103,60000	      3,49609	      3,49617
    103,70000	      3,49609	      3,49618
    103,80000	      3,49617	      3,49618
    103,90000	      3,49617	      3,49619
    104,00000	      3,49617	      3,49619
    104,10000	      3,49617	      3,49620
    104,20000	      3,49617	      3,49620
    104,30000	      3,49625	      3,49621
    104,40000	      3,49625	      3,49621
    104,50000	      3,49625	      3,49622
    104,60000	      3,49632	      3,49623
    104,70000	      3,49640	      3,49623
    104,80000	      3,49648	      3,49624
    104,90000	      3,49655	      3,49624
    105,00000	      3,49648	      3,49625
    105,10000	      3,49648	      3,49625
    105,20000	      3,49648	      3,49626
    105,30000	      3,49648	      3,49627
    105,40000	      3,49648	      3,49627
    105,50000	      3,49648	      3,49628
    105,60000	      3,49648	      3,49628
    105,70000	      3,49648	      3,49629
    105,80000	      3,49655	      3,49629
    105,90000	      3,49655	      3,49630
    106,00000	      3,49655	      3,49630
    106,10000	      3,49655	      3,49631
    106,20000	      3,49655	      3,49631
    106,30000	      3,49655	      3,49632
    106,40000	      3,49663	      3,49633
    106,50000	      3,49663	      3,49633
    106,60000	      3,49663	      3,49634
    106,70000	      3,49663	      3,49634
    106,80000	      3,49663	      3,49635
    106,90000	      3,49670	      3,49635
    107,00000	      3,49670	      3,49636
    107,10000	      3,49670	      3,49636
    107,20000	      3,49670	      3,49637
    107,30000	      3,49678	      3,49637
    107,40000	      3,49670	      3,49638
    107,50000	      3,49670	      3,49638
    107,60000	      3,49670	      3,49639
    107,70000	      3,49678	      3,49639
    107,80000	      3,49670	      3,49640
    107,90000	      3,49678	      3,49641
    108,00000	      3,49678	      3,49641
    108,10000	      3,49670	      3,49642
    108,20000	      3,49670	      3,49642
    108,30000	      3,49678	      3,49643
    108,40000	      3,49678	      3,49643
    108,50000	      3,49678	      3,49644
    108,60000	      3,49678	      3,49644
    108,70000	      3,49670	      3,49645
    108,80000	      3,49663	      3,49645
    108,90000	      3,49663	      3,49646
    109,00000	      3,49663	      3,49646
    109,10000	      3,49663	      3,49647
    109,20000	      3,49663	      3,49647
    109,30000	      3,49663	      3,49648
    109,40000	      3,49663	      3,49648
    109,50000	      3,49663	      3,49649
    109,60000	      3,49655	      3,49649
    109,70000	      3,49655	      3,49650
    109,80000	      3,49663	      3,49650
    109,90000	      3,49663	      3,49651
    110,00000	      3,49663	      3,49651
    110,10000	      3,49663	      3,49652
    110,20000	      3,49663	      3,49652
    110,30000	      3,49655	      3,49653
    110,40000	      3,49655	      3,49653
    110,50000	      3,49663	      3,49654
    110,60000	      3,49663	      3,49654
    110,70000	      3,49663	      3,49655
    110,80000	      3,49663	      3,49655
    110,90000	      3,49663	      3,49656
    111,00000	      3,49663	      3,49656
    111,10000	      3,49670	      3,49657
    111,20000	      3,49670	      3,49657
    111,30000	      3,49670	      3,49658
    111,40000	      3,49670	      3,49658
    111,50000	      3,49670	      3,49659
    111,60000	      3,49678	      3,49659
    111,70000	      3,49678	      3,49660
    111,80000	      3,49678	      3,49660
    111,90000	      3,49686	      3,49661
    112,00000	      3,49686	      3,49661
    112,10000	      3,49686	      3,49662
    112,20000	      3,49709	      3,49662
    112,30000	      3,49709	      3,49663
    112,40000	      3,49709	      3,49663
    112,50000	      3,49709	      3,49664
    112,60000	      3,49709	      3,49664
    112,70000	      3,49709	      3,49665
    112,80000	      3,49709	      3,49665
    112,90000	      3,49709	      3,49666
    113,00000	      3,49709	      3,49666
    113,10000	      3,49709	      3,49667
    113,20000	      3,49701	      3,49667
    113,30000	      3,49701	      3,49668
    113,40000	      3,49709	      3,49668
    113,50000	      3,49701	      3,49669
    113,60000	      3,49701	      3,49669
    113,70000	      3,49701	      3,49670
    113,80000	      3,49709	      3,49670
    113,90000	      3,49701	      3,49671
    114,00000	      3,49701	      3,49671
    114,10000	      3,49709	      3,49671
    114,20000	      3,49709	      3,49672
    114,30000	      3,49716	      3,49672
    114,40000	      3,49724	      3,49673
    114,50000	      3,49731	      3,49673
    114,60000	      3,49731	      3,49674
    114,70000	      3,49731	      3,49674
    114,80000	      3,49724	      3,49675
    114,90000	      3,49724	      3,49675
    115,00000	      3,49724	      3,49676
    115,10000	      3,49724	      3,49676
    115,20000	      3,49716	      3,49677
    115,30000	      3,49724	      3,49677
    115,40000	      3,49716	      3,49678
    115,50000	      3,49709	      3,49678
    115,60000	      3,49709	      3,49678
    115,70000	      3,49709	      3,49679
    115,80000	      3,49709	      3,49679
    115,90000	      3,49709	      3,49680
    116,00000	      3,49709	      3,49680
    116,10000	      3,49709	      3,49681
    116,20000	      3,49709	      3,49681
    116,30000	      3,49716	      3,49682
    116,40000	      3,49716	      3,49682
    116,50000	      3,49716	      3,49683
    116,60000	      3,49716	      3,49683
    116,70000	      3,49701	      3,49683
    116,80000	      3,49709	      3,49684
    116,90000	      3,49709	      3,49684
    117,00000	      3,49716	      3,49685
    117,10000	      3,49716	      3,49685
    117,20000	      3,49716	      3,49686
    117,30000	      3,49724	      3,49686
    117,40000	      3,49724	      3,49687
    117,50000	      3,49731	      3,49687
    117,60000	      3,49724	      3,49687
    117,70000	      3,49724	      3,49688
    117,80000	      3,49731	      3,49688
    117,90000	      3,49724	      3,49689
    118,00000	      3,49724	      3,49689
    118,10000	      3,49724	      3,49690
    118,20000	      3,49731	      3,49690
    118,30000	      3,49724	      3,49691
    118,40000	      3,49724	      3,49691
    118,50000	      3,49724	      3,49691
    118,60000	      3,49724	      3,49692
    118,70000	      3,49731	      3,49692
    118,80000	      3,49739	      3,49693
    118,90000	      3,49739	      3,49693
    119,00000	      3,49739	      3,49694
    119,10000	      3,49739	      3,49694
    119,20000	      3,49739	      3,49694
    119,30000	      3,49747	      3,49695
    119,40000	      3,49747	      3,49695
    119,50000	      3,49747	      3,49696
    119,60000	      3,49754	      3,49696
    119,70000	      3,49754	      3,49697
    119,80000	      3,49762	      3,49697
    119,90000	      3,49770	      3,49697
    120,00000	      3,49762	      3,49697
